# Energy shift = 1.04
# a_1: -0.106 +- 0.034, a_0: 0.0 +- 1.4, domain: [12.100000000000001eV ,14.469999999999999eV]
# Y-offset = 0.0+-0.0052, AE = 16.0652+-2.8673, Scale Factor = 0.0496+-0.2407, Alpha = 1.4778+-4.572
# Y-offset = 0.0049+-0.0159, AE = 18.8183+-0.5533, Scale Factor = 0.1198+-0.1117, Alpha = 1.581+-0.7823
# Y-offset = 0.0+-0.0174, AE = 21.6965+-0.2306, Scale Factor = 0.3766+-0.1127, Alpha = 1.2489+-0.1986
# -------------------------------------------------------------
Energy	Counts	Errors	Combined Fit	Fit 1	Fit 2(incl. prev.)	Fit 3(incl. prev.)	Fit 4(incl. prev.)
12.040000	0.180000	0.053628	nan	0.000000	 	 	 
12.110000	0.000000	0.000000	nan	0.008413	 	 	 
12.190000	0.000000	0.000000	nan	0.009167	 	 	 
12.260000	0.010000	0.009950	nan	0.009827	 	 	 
12.340000	0.010000	0.009950	nan	0.010581	 	 	 
12.410000	0.010000	0.009950	nan	0.011241	 	 	 
12.490000	0.000000	0.000000	nan	0.011995	 	 	 
12.560000	0.000000	0.000000	nan	0.012654	 	 	 
12.640000	0.010000	0.009950	nan	0.013408	 	 	 
12.710000	0.000000	0.000000	nan	0.014068	 	 	 
12.790000	0.010000	0.009950	nan	0.014822	 	 	 
12.860000	0.000000	0.000000	nan	0.015482	 	 	 
12.940000	0.000000	0.000000	nan	0.016236	 	 	 
13.010000	0.000000	0.000000	nan	0.016895	 	 	 
13.090000	0.010000	0.009950	0.022523	0.017649	0.017649	0.022523	0.022523
13.160000	0.000000	0.000000	0.023182	0.018309	0.018309	0.023182	0.023182
13.240000	0.000000	0.000000	0.023936	0.019063	0.019063	0.023936	0.023936
13.310000	0.010000	0.009950	0.024596	0.019723	0.019723	0.024596	0.024596
13.390000	0.010000	0.009950	0.025350	0.020476	0.020476	0.025350	0.025350
13.460000	0.000000	0.000000	0.026010	0.021136	0.021136	0.026010	0.026010
13.540000	0.000000	0.000000	0.026764	0.021890	0.021890	0.026764	0.026764
13.610000	0.000000	0.000000	0.027423	0.022550	0.022550	0.027423	0.027423
13.690000	0.000000	0.000000	0.028177	0.023304	0.023304	0.028177	0.028177
13.760000	0.010000	0.009950	0.028837	0.023963	0.023963	0.028837	0.028837
13.840000	0.040000	0.028000	0.029591	0.024717	0.024717	0.029591	0.029591
13.910000	0.000000	0.000000	0.030251	0.025377	0.025377	0.030251	0.030251
13.990000	0.000000	0.000000	0.031005	0.026131	0.026131	0.031005	0.031005
14.060000	0.020000	0.014000	0.031664	0.026791	0.026791	0.031664	0.031664
14.140000	0.000000	0.000000	0.032418	0.027545	0.027545	0.032418	0.032418
14.210000	0.020000	0.014000	0.033078	0.028204	0.028204	0.033078	0.033078
14.290000	0.030000	0.017059	0.033832	0.028958	0.028958	0.033832	0.033832
14.360000	0.020000	0.014000	0.034492	0.029618	0.029618	0.034492	0.034492
14.440000	0.020000	0.014000	0.035246	0.030372	0.030372	0.035246	0.035246
14.510000	0.010000	0.009950	0.035905	0.031032	0.031032	0.035905	0.035905
14.590000	0.030000	0.022159	0.036659	0.031786	0.031786	0.036659	0.036659
14.660000	0.000000	0.000000	0.037319	0.032445	0.032445	0.037319	0.037319
14.740000	0.020000	0.014000	0.038073	0.033199	0.033199	0.038073	0.038073
14.810000	0.030000	0.017059	0.038733	0.033859	0.033859	0.038733	0.038733
14.890000	0.030000	0.017059	0.039486	0.034613	0.034613	0.039486	0.039486
14.960000	0.000000	0.000000	0.040146	0.035273	0.035273	0.040146	0.040146
15.040000	0.040000	0.024166	0.040900	0.036027	0.036027	0.040900	0.040900
15.110000	0.030000	0.022159	0.041560	0.036686	0.036686	0.041560	0.041560
15.190000	0.030000	0.022159	0.042314	0.037440	0.037440	0.042314	0.042314
15.260000	0.020000	0.014000	0.042973	0.038100	0.038100	0.042973	0.042973
15.340000	0.040000	0.024166	0.043727	0.038854	0.038854	0.043727	0.043727
15.410000	0.010000	0.009950	0.044387	0.039514	0.039514	0.044387	0.044387
15.490000	0.050000	0.021794	0.045141	0.040267	0.040267	0.045141	0.045141
15.560000	0.030000	0.017059	0.045801	0.040927	0.040927	0.045801	0.045801
15.640000	0.050000	0.029580	0.046555	0.041681	0.041682	0.046555	0.046555
15.710000	0.090000	0.042650	0.047218	0.042341	0.042344	0.047218	0.047218
15.790000	0.080000	0.033705	0.047993	0.043095	0.043120	0.047993	0.047993
15.860000	0.070000	0.038092	0.048740	0.043754	0.043866	0.048740	0.048740
15.940000	0.010000	0.009950	0.049846	0.044508	0.044973	0.049846	0.049846
16.010000	0.140000	0.042474	0.051333	0.045168	0.046459	0.051333	0.051333
16.090000	0.030000	0.022159	0.054101	0.045922	0.049227	0.054101	0.054101
16.160000	0.070000	0.032419	0.057795	0.046582	0.052922	0.057795	0.057795
16.240000	0.130000	0.041605	0.063612	0.047336	0.058738	0.063612	0.063612
16.310000	0.090000	0.031922	0.069994	0.047995	0.065120	0.069994	0.069994
16.390000	0.090000	0.034914	0.078536	0.048749	0.073663	0.078536	0.078536
16.460000	0.120000	0.038158	0.086930	0.049409	0.082057	0.086930	0.086930
16.540000	0.060000	0.023749	0.097428	0.050163	0.092554	0.097428	0.097428
16.610000	0.100000	0.033166	0.107322	0.050823	0.102448	0.107322	0.107322
16.690000	0.100000	0.038730	0.119369	0.051577	0.114496	0.119369	0.119369
16.760000	0.170000	0.058404	0.130513	0.052236	0.125640	0.130513	0.130513
16.840000	0.130000	0.039128	0.143893	0.052990	0.139020	0.143893	0.143893
16.910000	0.130000	0.050309	0.156135	0.053650	0.151262	0.156135	0.156135
16.990000	0.160000	0.061188	0.170705	0.054404	0.165831	0.170705	0.170705
17.060000	0.130000	0.041605	0.183938	0.055064	0.179065	0.183938	0.183938
17.140000	0.340000	0.081511	0.199593	0.055818	0.194719	0.199593	0.199593
17.210000	0.230000	0.063016	0.213737	0.056477	0.208864	0.213737	0.213737
17.290000	0.260000	0.070171	0.230395	0.057231	0.225521	0.230395	0.230395
17.360000	0.250000	0.057228	0.245387	0.057891	0.240514	0.245387	0.245387
17.440000	0.280000	0.090642	0.262982	0.058645	0.258109	0.262982	0.262982
17.510000	0.200000	0.044721	0.278770	0.059305	0.273896	0.278770	0.278770
17.590000	0.520000	0.091082	0.297248	0.060058	0.292374	0.297248	0.297248
17.660000	0.420000	0.077692	0.313787	0.060718	0.308914	0.313787	0.313787
17.740000	0.450000	0.095263	0.333103	0.061472	0.328229	0.333103	0.333103
17.810000	0.340000	0.065146	0.350357	0.062132	0.345483	0.350357	0.350357
17.890000	0.290000	0.062121	0.370470	0.062886	0.365596	0.370470	0.370470
17.960000	0.420000	0.082680	0.388406	0.063545	0.383533	0.388406	0.388406
18.040000	0.400000	0.081240	0.409282	0.064299	0.404408	0.409282	0.409282
18.110000	0.380000	0.077175	0.427872	0.064959	0.422999	0.427872	0.427872
18.190000	0.490000	0.133038	0.449480	0.065713	0.444607	0.449480	0.449480
18.260000	0.510000	0.084256	0.468699	0.066373	0.463826	0.468699	0.468699
18.340000	0.530000	0.099454	0.491013	0.067127	0.486139	0.491013	0.491013
18.410000	0.450000	0.093140	0.510839	0.067786	0.505964	0.510839	0.510839
18.490000	0.520000	0.086579	0.533845	0.068540	0.528959	0.533845	0.533845
18.560000	0.440000	0.076577	0.554312	0.069200	0.549369	0.554312	0.554312
18.640000	0.520000	0.083042	0.578252	0.069954	0.573022	0.578252	0.578252
18.710000	0.590000	0.103049	0.600054	0.070614	0.594000	0.600054	0.600054
18.790000	0.810000	0.127824	0.626779	0.071368	0.618292	0.626779	0.626779
18.860000	0.580000	0.089644	0.652641	0.072027	0.639821	0.652641	0.652641
18.940000	0.560000	0.088679	0.685888	0.072781	0.664732	0.685888	0.685888
19.010000	0.960000	0.139943	0.718465	0.073441	0.686796	0.718465	0.718465
19.090000	0.760000	0.150413	0.759485	0.074195	0.712311	0.759485	0.759485
19.160000	0.890000	0.136305	0.798358	0.074855	0.734895	0.798358	0.798358
19.240000	0.820000	0.108977	0.845815	0.075609	0.760998	0.845815	0.845815
19.310000	1.010000	0.128448	0.889760	0.076268	0.784089	0.889760	0.889760
19.390000	0.930000	0.133608	0.942546	0.077022	0.810765	0.942546	0.942546
19.460000	1.110000	0.171985	0.990847	0.077682	0.834352	0.990847	0.990847
19.540000	1.000000	0.124097	1.048342	0.078436	0.861587	1.048342	1.048342
19.610000	1.050000	0.140268	1.100572	0.079095	0.885658	1.100572	1.100572
19.690000	0.930000	0.132857	1.162373	0.079849	0.913439	1.162373	1.162373
19.760000	1.230000	0.150901	1.218231	0.080509	0.937983	1.218231	1.218231
19.840000	1.180000	0.166361	1.284039	0.081263	0.966300	1.284039	1.284039
19.910000	1.380000	0.169576	1.343297	0.081923	0.991307	1.343297	1.343297
19.990000	1.440000	0.164511	1.412880	0.082677	1.020147	1.412880	1.412880
20.060000	1.850000	0.213717	1.475352	0.083336	1.045608	1.475352	1.475352
20.140000	1.640000	0.201256	1.548520	0.084090	1.074962	1.548520	1.548520
20.210000	1.690000	0.172450	1.614056	0.084750	1.100867	1.614056	1.614056
20.290000	1.640000	0.175795	1.690649	0.085504	1.130724	1.690649	1.690649
20.360000	1.910000	0.202531	1.759120	0.086164	1.157066	1.759120	1.759120
20.440000	1.640000	0.175226	1.839001	0.086918	1.187417	1.839001	1.839001
20.510000	2.130000	0.205745	1.910296	0.087577	1.214187	1.910296	1.910296
20.590000	1.750000	0.189407	1.993346	0.088331	1.245024	1.993346	1.993346
20.660000	2.050000	0.198683	2.067367	0.088991	1.272215	2.067367	2.067367
20.740000	2.610000	0.270516	2.153482	0.089745	1.303528	2.153482	2.153482
20.810000	2.210000	0.242609	2.230142	0.090405	1.331133	2.230142	2.230142
20.890000	2.080000	0.236085	2.319228	0.091159	1.362914	2.319228	2.319228
20.960000	2.280000	0.271691	2.398449	0.091818	1.390926	2.398449	2.398449
21.040000	2.740000	0.312608	2.490421	0.092572	1.423169	2.490421	2.490421
21.110000	2.430000	0.261631	2.572135	0.093232	1.451581	2.572134	2.572135
21.190000	2.760000	0.234572	2.666917	0.093986	1.484278	2.666916	2.666917
21.260000	2.800000	0.260000	2.751061	0.094646	1.513084	2.751057	2.751061
21.340000	2.400000	0.251794	2.848625	0.095399	1.546227	2.848579	2.848625
21.410000	2.970000	0.253557	2.935350	0.096059	1.575422	2.935088	2.935350
21.490000	3.150000	0.284385	3.036713	0.096813	1.609006	3.035286	3.036713
21.560000	3.490000	0.291717	3.128997	0.097473	1.638582	3.124110	3.128997
21.640000	3.340000	0.241338	3.242250	0.098227	1.672600	3.226924	3.242250
21.710000	3.330000	0.314978	3.351923	0.098886	1.702554	3.318012	3.351923
21.790000	3.480000	0.306751	3.492244	0.099640	1.737000	3.423388	3.492244
21.860000	3.730000	0.340545	3.627808	0.100300	1.767325	3.516695	3.627808
21.940000	4.170000	0.354698	3.794509	0.101054	1.802193	3.624580	3.794509
22.010000	3.960000	0.379452	3.948004	0.101714	1.832885	3.720062	3.948004
22.090000	3.810000	0.325790	4.129907	0.102468	1.868169	3.830410	4.129907
22.160000	4.190000	0.422775	4.293679	0.103127	1.899223	3.928027	4.293679
22.240000	4.210000	0.355892	4.485398	0.103881	1.934918	4.040791	4.485398
22.310000	4.980000	0.388325	4.656760	0.104541	1.966329	4.140504	4.656760
22.390000	4.850000	0.377723	4.856401	0.105295	2.002430	4.255644	4.856401
22.460000	5.020000	0.413275	5.034202	0.105955	2.034194	4.357417	5.034202
22.540000	5.460000	0.419385	5.240759	0.106709	2.070695	4.474892	5.240759
22.610000	5.610000	0.449198	5.424291	0.107368	2.102808	4.578692	5.424291
22.690000	5.550000	0.422226	5.637092	0.108122	2.139705	4.698465	5.637092
22.760000	5.660000	0.449048	5.825856	0.108782	2.172162	4.804259	5.825856
22.840000	6.050000	0.410701	6.044612	0.109536	2.209654	4.926497	6.044612
22.910000	6.080000	0.442872	6.238230	0.110196	2.242450	5.034254	6.238230
22.990000	6.280000	0.425930	6.462149	0.110950	2.280124	5.158515	6.462149
23.060000	6.190000	0.408092	6.660322	0.111609	2.313256	5.268208	6.660322
23.140000	6.050000	0.438948	6.889301	0.112363	2.351312	5.394664	6.889301
23.210000	7.400000	0.494368	7.091786	0.113023	2.384777	5.506265	7.091786
23.290000	7.600000	0.496790	7.325570	0.113777	2.423211	5.634886	7.325570
23.360000	8.020000	0.523255	7.532160	0.114437	2.457005	5.748368	7.532160
23.440000	7.780000	0.499716	7.770532	0.115190	2.495813	5.879125	7.770532
23.510000	8.710000	0.557547	7.981052	0.115850	2.529932	5.994463	7.981052
23.590000	8.080000	0.562793	8.223825	0.116604	2.569110	6.127329	8.223825
23.660000	8.490000	0.619434	8.438123	0.117264	2.603551	6.244499	8.438123
23.740000	8.960000	0.608427	8.685133	0.118018	2.643095	6.379445	8.685133
23.810000	9.230000	0.623515	8.903074	0.118677	2.677855	6.498425	8.903074
23.890000	9.010000	0.546717	9.154178	0.119431	2.717762	6.635426	9.154178
23.960000	9.360000	0.650772	9.375642	0.120091	2.752837	6.756194	9.375642
24.040000	10.040000	0.702840	9.630709	0.120845	2.793102	6.895226	9.630709
24.110000	10.930000	0.703456	9.855589	0.121505	2.828490	7.017759	9.855589
24.190000	10.140000	0.613681	10.114504	0.122259	2.869111	7.158798	10.114504
24.260000	9.830000	0.729939	10.342703	0.122918	2.904808	7.283077	10.342703
24.340000	10.590000	0.638137	10.605359	0.123672	2.945780	7.426100	10.605359
24.410000	10.810000	0.671371	10.836789	0.124332	2.981783	7.552106	10.836789
24.490000	11.270000	0.701976	11.103090	0.125086	3.023104	7.697091	11.103090
24.560000	11.470000	0.689268	11.337668	0.125746	3.059411	7.824804	11.337668
24.640000	11.570000	0.771655	11.607525	0.126500	3.101076	7.971730	11.607525
24.710000	11.360000	0.681692	11.845178	0.127159	3.137684	8.101133	11.845178
24.790000	12.080000	0.816784	12.118508	0.127913	3.179692	8.249979	12.118508
24.860000	12.600000	0.744043	12.359167	0.128573	3.216597	8.381053	12.359167
24.940000	12.440000	0.640362	12.635895	0.129327	3.258944	8.531800	12.635895
25.010000	12.600000	0.843682	12.879494	0.129987	3.296145	8.664529	12.879494
25.090000	12.980000	0.739457	13.159774	0.130741	3.339053	8.817384	13.159774
25.160000	13.840000	0.912767	13.406254	0.131400	3.376546	8.951750	13.406254
25.240000	13.310000	0.755737	13.689567	0.132154	3.419561	9.106242	13.689567
25.310000	13.460000	0.758079	13.938872	0.132814	3.457343	9.242231	13.938872
25.390000	14.820000	0.905912	14.225383	0.133568	3.500688	9.398567	14.225383
25.460000	14.320000	0.905194	14.477460	0.134228	3.538759	9.536163	14.477460
25.540000	13.950000	0.789351	14.767111	0.134981	3.582431	9.694328	14.767111
25.610000	15.740000	0.957666	15.022691	0.135641	3.620787	9.834297	15.022691
25.690000	15.200000	0.911592	15.315422	0.136395	3.664784	9.994269	15.315422
25.760000	16.100000	0.928816	15.572894	0.137055	3.703423	10.135032	15.572894
25.840000	16.290000	0.801161	15.868657	0.137809	3.747743	10.296799	15.868657
25.910000	15.850000	0.891670	16.128760	0.138468	3.786662	10.439126	16.128760
25.990000	16.870000	1.034955	16.427507	0.139222	3.831301	10.602673	16.427507
26.060000	16.690000	0.999869	16.690200	0.139882	3.870499	10.746550	16.690200
26.140000	17.630000	1.027585	16.991882	0.140636	3.915455	10.911861	16.991882
26.210000	17.110000	0.997486	17.257124	0.141296	3.954929	11.057275	17.257124
26.290000	16.570000	1.020809	17.561698	0.142050	4.000200	11.224335	17.561698
26.360000	17.380000	1.014769	17.829452	0.142709	4.039948	11.371274	17.829452
26.440000	17.910000	1.020107	18.136875	0.143463	4.085531	11.540069	18.136875
26.510000	17.740000	1.020453	18.407103	0.144123	4.125551	11.688518	18.407103
26.590000	18.790000	1.136512	18.717335	0.144877	4.171443	11.859034	18.717335
26.660000	18.690000	1.034669	18.990004	0.145537	4.211734	12.008983	18.990004
26.740000	19.390000	1.056210	19.303005	0.146291	4.257934	12.181205	19.303005
26.810000	20.100000	1.237942	19.578081	0.146950	4.298492	12.332642	19.578081
26.890000	19.650000	1.124044	19.893815	0.147704	4.344997	12.506558	19.893815
26.960000	20.480000	1.148519	20.171267	0.148364	4.385822	12.659471	20.171267
27.040000	20.460000	1.221100	20.489698	0.149118	4.432630	12.835067	20.489698
27.110000	20.890000	1.184559	20.769494	0.149778	4.473719	12.989445	20.769494
27.190000	21.360000	1.234141	21.090589	0.150532	4.520827	13.166708	21.090589
27.260000	20.150000	1.150945	21.372701	0.151191	4.562179	13.322540	21.372701
27.340000	21.180000	1.287663	21.696671	0.151945	4.609832	13.501704	21.696671
27.410000	23.100000	1.282459	21.981070	0.152605	4.651442	13.658978	21.981070
27.490000	21.670000	1.216475	22.307392	0.153359	4.699146	13.839540	22.307392
27.560000	22.090000	1.249487	22.594052	0.154019	4.741015	13.998246	22.594052
27.640000	20.800000	1.222129	22.922943	0.154772	4.789013	14.180439	22.922943
27.710000	23.530000	1.390644	23.211836	0.155432	4.831139	14.340567	23.211836
27.790000	22.760000	1.288264	23.543267	0.156186	4.879430	14.524380	23.543267
27.860000	22.510000	1.287439	23.835260	0.156846	4.921811	14.686811	23.835260
27.940000	24.010000	1.359154	24.169197	0.157600	4.970392	14.872229	24.169197
28.010000	24.380000	1.367975	24.462483	0.158259	5.013027	15.035170	24.462483
28.090000	24.610000	1.400992	24.798904	0.159013	5.061897	15.222186	24.798904
28.160000	24.130000	1.311766	25.094351	0.159673	5.104784	15.386520	25.094351
28.240000	24.630000	1.384533	25.433230	0.160427	5.153940	15.575123	25.433230
28.310000	24.170000	1.298157	25.730816	0.161087	5.197077	15.740841	25.730816
28.390000	24.790000	1.305320	26.072127	0.161841	5.246519	15.931020	26.072127
28.460000	25.420000	1.480147	26.372270	0.162500	5.289905	16.098113	26.372270
28.540000	25.550000	1.391429	26.715984	0.163254	5.339630	16.289858	26.715984
28.610000	26.090000	1.597254	27.017780	0.163914	5.383262	16.458316	27.017780
28.690000	24.830000	1.348707	27.363877	0.164668	5.433269	16.651617	27.363877
28.760000	26.220000	1.350969	27.667748	0.165328	5.477147	16.821433	27.667748
28.840000	27.020000	1.494990	28.016205	0.166082	5.527433	17.016280	28.016205
28.910000	26.550000	1.460642	28.322131	0.166741	5.571555	17.187445	28.322131
28.990000	26.730000	1.460332	28.672927	0.167495	5.622119	17.383828	28.672927
29.060000	26.780000	1.490542	28.980889	0.168155	5.666483	17.556333	28.980889
29.140000	27.720000	1.511958	29.334000	0.168909	5.717323	17.754244	29.334000
29.210000	27.580000	1.498077	29.643979	0.169569	5.761929	17.928080	29.643979
29.290000	27.980000	1.481417	29.999385	0.170323	5.813044	18.127508	29.999385
29.360000	28.080000	1.578397	30.311363	0.170982	5.857889	18.302669	30.311363
29.440000	27.280000	1.572837	30.669043	0.171736	5.909276	18.503606	30.669043
29.510000	27.910000	1.494195	30.983001	0.172396	5.954360	18.680082	30.983001
29.590000	29.830000	1.615181	31.343200	0.173150	6.006283	18.882783	31.343200
29.660000	28.960000	1.462800	31.659121	0.173809	6.051602	19.060567	31.659121
29.740000	29.510000	1.681993	32.021289	0.174563	6.103530	19.264494	32.021289
29.810000	28.940000	1.499988	32.339157	0.175223	6.149085	19.443579	32.339157
29.890000	29.410000	1.632672	32.703541	0.175977	6.201281	19.648987	32.703541
29.960000	30.590000	1.742705	33.023340	0.176637	6.247070	19.829366	33.023340
30.040000	30.210000	1.628330	33.389920	0.177391	6.299533	20.036249	33.389920
30.110000	30.880000	1.607313	33.712625	0.178050	6.345555	20.218904	33.712625
30.190000	29.540000	1.590875	34.081381	0.178804	6.398283	20.427249	34.081381
30.260000	30.260000	1.686038	34.404991	0.179464	6.444536	20.610190	34.404991
30.340000	30.620000	1.596733	34.775909	0.180218	6.497529	20.819993	34.775909
30.410000	30.760000	1.704706	35.101403	0.180878	6.544012	21.004206	35.101403
30.490000	31.810000	1.794307	35.474466	0.181632	6.597266	21.215459	35.474466
30.560000	32.060000	1.712999	35.801828	0.182291	6.643979	21.400936	35.801828
30.640000	30.970000	1.607075	36.177019	0.183045	6.697494	21.613631	36.177019
30.710000	31.280000	1.810363	36.506692	0.183705	6.744434	21.800367	36.506692
30.790000	31.890000	1.633028	36.883991	0.184459	6.798209	22.014495	36.883991
30.860000	31.250000	1.753019	37.215046	0.185119	6.845375	22.202483	37.215046
30.940000	32.210000	1.543716	37.594440	0.185873	6.899408	22.418038	37.594440
31.010000	33.310000	1.902561	37.927322	0.186532	6.946800	22.607270	37.927322
